time[ms],R1[ohm]
2,1515.19
1004,1553.62
2008,1489.71
3010,1502.43
4014,1489.71
5016,1439.09
6020,1426.51
7022,1413.96
8026,1489.71
9028,1413.96
10032,1401.43
11034,1401.43
12038,1388.93
13040,1388.93
14044,1364.02
15046,1302.21
16050,1326.85
17052,1326.85
18056,1326.85
19058,1339.21
20062,1289.93
21064,1277.68
22068,1265.46
23070,1265.46
24074,1253.26
25076,1253.26
26080,1228.95
27082,1204.74
28086,1228.95
29088,1216.83
30092,1216.83
31094,1204.74
32098,1204.74
33101,1192.67
34104,1180.63
35107,1180.63
36110,1180.63
37113,1132.75
38116,1156.64
39119,1132.75
40122,1108.96
41125,1120.84
42128,1120.84
43131,1085.27
44134,1085.27
45137,1108.96
46140,1097.10
47143,1108.96
48146,1073.47
49149,1061.69
50152,1085.27
51155,1061.69
52158,1026.50
53161,1061.69
54164,1038.21
55168,1026.50
56170,1003.18
57174,1049.94
58176,1014.83
59180,1014.83
60182,1003.18
61186,1026.50
62189,1003.18
63192,991.55
64195,979.95
65198,991.55
66200,991.55
67204,968.37
68206,991.55
69210,956.82
70212,979.95
71216,945.29
72218,933.79
73222,933.79
74224,910.85
75228,910.85
76230,899.42
77234,910.85
78236,888.02
79240,910.85
80242,899.42
81246,865.28
82248,888.02
83252,876.64
84254,876.64
85257,820.10
86260,876.64
87263,853.95
88266,865.28
89269,853.95
90272,853.95
91275,865.28
92278,797.65
93281,831.36
94284,831.36
95287,820.10
96290,820.10
97293,808.86
98296,808.86
99299,820.10
100302,786.46
101305,786.46
102308,786.46
103311,764.15
104314,775.29
105317,775.29
106320,753.03
107323,753.03
108326,775.29
109329,741.93
110332,741.93
111335,753.03
112338,764.15
113341,741.93
114344,741.93
115347,719.81
116350,708.79
117353,730.86
118356,719.81
119359,753.03
120363,697.78
121365,708.79
122369,708.79
123371,708.79
124375,686.80
125377,708.79
126381,686.80
127384,708.79
128387,697.78
129390,686.80
130393,675.85
131396,719.81
132399,664.91
133402,675.85
134405,675.85
135408,675.85
136411,675.85
137414,664.91
138417,686.80
139420,621.40
140423,654.00
141426,664.91
142429,654.00
143432,654.00
144435,654.00
145438,643.11
146441,643.11
147444,697.78
148447,643.11
149450,664.91
150453,643.11
151456,643.11
152459,664.91
153462,589.01
154465,632.25
155468,621.40
156471,632.25
157474,632.25
158478,643.11
159480,654.00
160484,632.25
161486,632.25
162490,632.25
163492,632.25
164496,621.40
165498,632.25
166502,664.91
167504,643.11
168508,632.25
169510,632.25
170514,621.40
171516,632.25
172520,621.40
173522,632.25
174526,632.25
175528,632.25
176532,621.40
177534,632.25
178538,632.25
179540,610.58
180544,621.40
181547,610.58
182550,621.40
183553,632.25
184556,610.58
185560,578.25
186562,599.78
187566,610.58
188568,621.40
189572,632.25
190574,664.91
191578,643.11
192580,621.40
193584,589.01
194586,632.25
195590,632.25
196592,643.11
197596,664.91
198598,654.00
199602,621.40
200604,632.25
201608,632.25
202610,632.25
203614,632.25
204616,654.00
205620,621.40
206622,632.25
207626,632.25
208628,643.11
209632,621.40
210634,643.11
211638,643.11
212641,643.11
213644,643.11
214647,654.00
215650,632.25
216653,654.00
217656,643.11
218659,643.11
219662,599.78
220665,643.11
221668,621.40
222671,643.11
223674,632.25
224677,643.11
225680,621.40
226683,621.40
227686,621.40
228689,621.40
229692,643.11
230695,621.40
231698,610.58
232701,632.25
233704,632.25
234707,632.25
235710,621.40
236713,632.25
237716,632.25
238720,632.25
239722,643.11
240726,632.25
241729,621.40
242732,632.25
243735,632.25
244738,632.25
245741,643.11
246744,643.11
247747,621.40
248750,621.40
249753,610.58
250756,632.25
251759,621.40
252762,632.25
253765,621.40
254768,632.25
255771,643.11
256774,632.25
257777,643.11
258780,643.11
259783,621.40
260786,632.25
261789,632.25
262792,632.25
263795,632.25
264798,632.25
265801,654.00
266804,632.25
267807,632.25
268811,632.25
269813,632.25
270817,621.40
271819,632.25
272823,632.25
273825,610.58
274829,632.25
275831,632.25
276835,632.25
277837,621.40
278841,643.11
279843,632.25
280847,632.25
281849,610.58
282853,643.11
283855,632.25
284859,654.00
285861,632.25
286865,632.25
287867,654.00
288871,654.00
289873,621.40
290877,643.11
291879,632.25
292883,643.11
293885,621.40
294889,621.40
295892,621.40
296895,632.25
297899,632.25
298901,632.25
299905,621.40
300907,643.11
301911,610.58
302913,621.40
303917,632.25
304919,599.78
305923,621.40
306925,632.25
307929,632.25
308931,643.11
309935,621.40
310937,643.11
311941,643.11
312943,643.11
313947,621.40
314949,643.11
315953,621.40
316955,621.40
317959,643.11
318961,643.11
319965,632.25
320968,610.58
321971,654.00
322974,610.58
323977,610.58
324980,632.25
325983,610.58
326986,632.25
327989,632.25
328992,632.25
329995,643.11
330998,621.40
332001,621.40
333004,632.25
334007,621.40
335010,599.78
336013,632.25
337016,610.58
338019,643.11
339022,643.11
340025,643.11
341028,654.00
342031,632.25
343034,632.25
344037,621.40
345040,610.58
346043,621.40
347046,632.25
348049,632.25
349052,599.78
350056,632.25
351058,643.11
352062,643.11
353064,643.11
354068,578.25
355070,675.85
356074,632.25
357076,632.25
358080,632.25
359083,621.40
360086,664.91
361089,610.58
362092,632.25
363095,632.25
364098,643.11
365101,632.25
366104,654.00
367107,643.11
368110,632.25
369113,632.25
370116,621.40
371119,621.40
372122,610.58
373125,621.40
374128,599.78
375131,599.78
376134,632.25
377138,621.40
378140,621.40
379144,632.25
380146,632.25
381150,632.25
382152,632.25
383156,632.25
384158,643.11
385162,589.01
386164,632.25
387168,632.25
388170,654.00
389174,632.25
390176,643.11
391180,632.25
392182,643.11
393186,599.78
394188,632.25
395192,643.11
396194,632.25
397198,654.00
398200,632.25
399204,610.58
400206,643.11
401210,632.25
402212,621.40
403216,632.25
404219,643.11
405222,610.58
406225,621.40
407228,632.25
408231,643.11
409234,632.25
410237,578.25
411240,654.00
412243,643.11
413246,643.11
414249,610.58
415252,643.11
416256,621.40
417258,632.25
418262,621.40
419264,578.25
420268,621.40
421270,643.11
422274,643.11
423276,621.40
424280,643.11
425282,643.11
426286,632.25
427288,654.00
428292,643.11
429294,621.40
430298,643.11
431300,632.25
432304,654.00
433307,621.40
434310,599.78
435313,632.25
436316,599.78
437319,643.11
438322,599.78
439325,589.01
440328,621.40
441331,632.25
442334,632.25
443337,632.25
444340,632.25
445343,621.40
446346,632.25
447349,632.25
448352,632.25
449355,643.11
450358,643.11
451361,621.40
452364,599.78
453367,664.91
454370,632.25
455373,621.40
456376,632.25
457379,621.40
458383,621.40
459385,632.25
460389,621.40
461391,599.78
462395,632.25
463397,632.25
464401,621.40
465403,632.25
466407,599.78
467409,643.11
468413,621.40
469415,632.25
470419,610.58
471421,621.40
472425,675.85
473427,632.25
474431,643.11
475433,643.11
476437,621.40
477440,632.25
478443,632.25
479446,621.40
480449,621.40
481452,643.11
482455,621.40
483458,632.25
484461,632.25
485465,632.25
486467,654.00
487471,675.85
488473,621.40
489477,643.11
490479,654.00
491483,643.11
492485,632.25
493489,621.40
494491,621.40
495495,621.40
496497,643.11
497501,654.00
498503,632.25
499507,621.40
500509,621.40
501513,589.01
502515,632.25
503519,643.11
504521,610.58
505525,632.25
506527,632.25
507531,621.40
508533,621.40
509537,632.25
510539,621.40
511543,675.85
512546,643.11
513549,610.58
514552,632.25
515555,643.11
516558,589.01
517561,632.25
518564,643.11
519567,632.25
520570,621.40
521573,632.25
522576,654.00
523579,621.40
524582,610.58
525585,686.80
526588,664.91
527591,643.11
528594,643.11
529597,621.40
530600,632.25
531603,643.11
532606,610.58
533609,654.00
534612,610.58
535615,632.25
536619,632.25
537621,654.00
538625,599.78
539627,632.25
540631,610.58
541634,632.25
542637,632.25
543640,567.52
544643,643.11
545646,632.25
546649,632.25
547652,632.25
548655,632.25
549658,632.25
550661,632.25
551664,621.40
552667,632.25
553670,621.40
554673,632.25
555676,643.11
556679,621.40
557682,632.25
558685,632.25
559688,643.11
560691,621.40
561694,654.00
562697,621.40
563700,632.25
564703,632.25
565706,632.25
566709,643.11
567712,610.58
568715,610.58
569718,621.40
570722,632.25
571724,599.78
572728,621.40
573730,632.25
574734,664.91
575736,632.25
576740,643.11
577742,610.58
578746,686.80
579748,610.58
580752,632.25
581754,632.25
582758,643.11
583760,654.00
584764,610.58
585766,632.25
586770,643.11
587772,610.58
588776,610.58
589778,632.25
590782,632.25
591784,632.25
592788,643.11
593790,654.00
594794,621.40
595796,643.11
596800,664.91
597804,632.25
598806,632.25
599810,632.25
600812,621.40
601816,599.78
602818,578.25
603822,632.25
604824,610.58
605828,643.11
606830,632.25
607834,632.25
608836,654.00
609840,621.40
610842,632.25
611846,643.11
612848,632.25
613852,664.91
614854,643.11
615858,621.40
616860,632.25
617864,621.40
618866,632.25
619870,643.11
620872,632.25
621876,632.25
622878,632.25
623882,632.25
624885,643.11
625888,643.11
626891,599.78
627894,686.80
628897,632.25
629900,632.25
630903,654.00
631906,632.25
632909,632.25
633912,621.40
634915,632.25
635918,632.25
636921,643.11
637924,632.25
638927,654.00
639930,621.40
640933,599.78
641936,610.58
642939,643.11
643942,621.40
644945,643.11
645948,632.25
646951,632.25
647954,654.00
648957,632.25
649961,654.00
650963,621.40
651967,632.25
652969,654.00
653973,632.25
654976,621.40
655979,664.91
656982,632.25
657985,632.25
658988,654.00
659991,621.40
660994,643.11
661997,621.40
663000,621.40
664003,610.58
665006,610.58
666009,621.40
667012,632.25
668015,654.00
669018,643.11
670021,610.58
671024,632.25
672027,621.40
673030,632.25
674033,621.40
675036,643.11
676039,654.00
677043,632.25
678045,632.25
679049,643.11
680051,632.25
681055,632.25
682057,632.25
683061,654.00
684063,643.11
685067,643.11
686069,610.58
687073,643.11
688075,632.25
689079,621.40
690081,632.25
691085,610.58
692087,621.40
693091,632.25
694093,632.25
695097,643.11
696099,632.25
697103,621.40
698105,621.40
699109,632.25
700111,654.00
701115,621.40
702117,610.58
703121,621.40
704123,654.00
705127,643.11
706130,621.40
707133,632.25
708136,632.25
709139,686.80
710142,654.00
711145,589.01
712148,621.40
713151,632.25
714155,632.25
715157,621.40
716161,621.40
717163,621.40
718167,632.25
719169,643.11
720173,643.11
721175,610.58
722179,643.11
723181,654.00
724185,610.58
725187,632.25
726191,632.25
727193,632.25
728197,632.25
729199,643.11
730203,664.91
731205,621.40
732209,621.40
733212,621.40
734215,621.40
735218,610.58
736221,632.25
737224,632.25
738227,632.25
739230,589.01
740233,632.25
741236,621.40
742239,632.25
743242,632.25
744245,621.40
745248,654.00
746251,664.91
747254,621.40
748257,632.25
749260,632.25
750263,632.25
751266,599.78
752269,632.25
753272,643.11
754275,632.25
755278,621.40
756281,632.25
757284,632.25
758287,632.25
759290,632.25
760294,632.25
761296,632.25
762300,589.01
763302,654.00
764306,621.40
765308,643.11
766312,621.40
767314,632.25
768318,632.25
769320,632.25
770324,654.00
771326,610.58
772330,654.00
773332,632.25
774336,643.11
775339,621.40
776342,621.40
777345,632.25
778348,632.25
779351,632.25
780354,632.25
781357,632.25
782360,632.25
783363,643.11
784366,632.25
785369,632.25
786372,621.40
787376,632.25
788378,632.25
789382,643.11
790384,654.00
791388,643.11
792390,621.40
793394,654.00
794396,621.40
795400,621.40
796402,643.11
797406,621.40
798408,643.11
799412,621.40
800414,632.25
801418,632.25
802420,621.40
803424,643.11
804426,632.25
805430,654.00
806432,632.25
807436,621.40
808438,589.01
809442,632.25
810444,621.40
811448,686.80
812450,632.25
813454,632.25
814457,621.40
815460,621.40
816463,621.40
817466,664.91
818469,643.11
819472,621.40
820475,599.78
821478,643.11
822481,632.25
823484,643.11
824487,643.11
825490,621.40
826493,621.40
827496,621.40
828499,632.25
829502,654.00
830505,632.25
831508,643.11
832512,632.25
833514,632.25
834518,621.40
835520,632.25
836524,632.25
837526,632.25
838530,643.11
839532,643.11
840536,621.40
841539,643.11
842542,632.25
843545,632.25
844548,654.00
845551,654.00
846554,643.11
847557,632.25
848560,643.11
849563,621.40
850566,599.78
851569,632.25
852572,632.25
853575,632.25
854578,643.11
855581,632.25
856584,643.11
857587,643.11
858590,632.25
859593,621.40
860596,632.25
861599,654.00
862602,610.58
863605,599.78
864608,643.11
865611,632.25
866614,632.25
867617,643.11
868621,643.11
869623,643.11
870627,610.58
871629,632.25
872633,632.25
873635,654.00
874639,621.40
875641,632.25
876645,632.25
877647,632.25
878651,632.25
879653,643.11
880657,621.40
881659,654.00
882663,675.85
883665,643.11
884669,664.91
885671,599.78
886675,589.01
887677,610.58
888681,632.25
889683,643.11
890687,610.58
891689,610.58
892693,643.11
893696,610.58
894699,654.00
895702,599.78
896705,643.11
897709,621.40
898711,599.78
899715,621.40
900717,643.11
901721,632.25
902723,632.25
903727,632.25
904729,621.40
905733,632.25
906735,621.40
907739,643.11
908741,643.11
909745,632.25
910747,632.25
911751,654.00
912753,664.91
913757,632.25
914759,632.25
915763,621.40
916765,610.58
917769,632.25
918771,632.25
919775,632.25
920777,643.11
921781,632.25
922784,621.40
923787,632.25
924790,643.11
925793,589.01
926796,632.25
927799,621.40
928802,621.40
929805,632.25
930808,632.25
931811,643.11
932814,664.91
933817,632.25
934820,632.25
935823,632.25
